            LEVEL NUMBER     A(K)            B(K)                         
                       1   0.0000           0.0000                        
                       2   2.0000           0.0000                        
                       3   2.9777           0.0000                        
                       4   4.3118           0.0000                        
                       5   6.0768           0.0000                        
                       6   8.3580           0.0000                        
                       7   11.244           0.0000                        
                       8   14.826           0.0000                        
                       9   19.194           0.0000                        
                      10   24.434           0.0000                        
                      11   30.631           0.0000                        
                      12   37.858           0.0000                        
                      13   46.184           0.0000                        
                      14   55.665           0.0000                        
                      15   66.353           0.0000                        
                      16   78.405           0.0000                        
                      17   91.938           0.0000                        
                      18   107.02           0.0000                        
                      19   123.85           0.0000                        
                      20   142.59           0.0000                        
                      21   163.36           0.0000                        
                      22   186.27           0.0000                        
                      23   211.41           0.0000                        
                      24   238.87           0.0000                        
                      25   268.73           0.0000                        
                      26   301.06           0.0000                        
                      27   335.92           0.0000                        
                      28   373.35           0.0000                        
                      29   413.41           0.0000                        
                      30   456.10           0.0000                        
                      31   501.47           0.0000                        
                      32   549.51           0.0000                        
                      33   600.22           0.0000                        
                      34   653.60           0.0000                        
                      35   709.64           0.0000                        
                      36   768.32           0.0000                        
                      37   829.61           0.0000                        
                      38   893.44           0.0000                        
                      39   959.59           0.0000                        
                      40   1028.0           0.0000                        
                      41   1098.5           0.0000                        
                      42   1171.1           0.0000                        
                      43   1245.8           0.0000                        
                      44   1322.5           0.0000                        
                      45   1401.1           0.0000                        
                      46   1481.6           0.0000                        
                      47   1563.9           0.0000                        
                      48   1648.1           0.0000                        
                      49   1733.9           0.0000                        
                      50   1821.5           0.0000                        
                      51   1910.8           0.0000                        
                      52   2001.8           0.0000                        
                      53   2094.4           0.0000                        
                      54   2188.7           0.0000                        
                      55   2284.6           0.0000                        
                      56   2382.2           0.0000                        
                      57   2481.5           0.0000                        
                      58   2582.5           0.0000                        
                      59   2685.3           0.0000                        
                      60   2789.8           0.0000                        
                      61   2896.2           0.0000                        
                      62   3004.4           0.0000                        
                      63   3114.6           0.0000                        
                      64   3226.9           0.0000                        
                      65   3341.3           0.0000                        
                      66   3457.9           0.0000                        
                      67   3576.9           0.0000                        
                      68   3698.4           0.0000                        
                      69   3822.5           0.0000                        
                      70   3949.4           0.0000                        
                      71   4079.3           0.0000                        
                      72   4212.4           0.0000                        
                      73   4348.8           0.0000                        
                      74   4488.9           0.0000                        
                      75   4633.0           0.0000                        
                      76   4781.2           0.0000                        
                      77   4934.0           0.0000                        
                      78   5091.7           0.0000                        
                      79   5254.6           0.0000                        
                      80   5422.8           0.0000                        
                      81   5596.6           0.0000                        
                      82   5776.0           0.0000                        
                      83   5961.1           0.0000                        
                      84   6152.1           0.0000                        
                      85   6349.2           0.0000                        
                      86   6552.7           0.0000                        
                      87   6762.7           0.0000                        
                      88   6979.4           0.0000                        
                      89   7202.9          0.17862E-05                    
                      90   7433.5          0.43137E-05                    
                      91   7671.2          0.96741E-05                    
                      92   7916.0          0.20148E-04                    
                      93   8167.8          0.38966E-04                    
                      94   8426.6          0.69984E-04                    
                      95   8692.1          0.11672E-03                    
                      96   8964.6          0.18079E-03                    
                      97   9244.4          0.26004E-03                    
                      98   9532.7          0.34735E-03                    
                      99   9830.8          0.43086E-03                    
                     100   10139.          0.51451E-03                    
                     101   10455.          0.61319E-03                    
                     102   10781.          0.72933E-03                    
                     103   11115.          0.86575E-03                    
                     104   11457.          0.10257E-02                    
                     105   11809.          0.12127E-02                    
                     106   12161.          0.15106E-02                    
                     107   12519.          0.18703E-02                    
                     108   12883.          0.23020E-02                    
                     109   13251.          0.28170E-02                    
                     110   13623.          0.34275E-02                    
                     111   13998.          0.41472E-02                    
                     112   14374.          0.49906E-02                    
                     113   14752.          0.59735E-02                    
                     114   15128.          0.71127E-02                    
                     115   15503.          0.84260E-02                    
                     116   15875.          0.99320E-02                    
                     117   16242.          0.11650E-01                    
                     118   16602.          0.13600E-01                    
                     119   16955.          0.15804E-01                    
                     120   17299.          0.18281E-01                    
                     121   17632.          0.21053E-01                    
                     122   17953.          0.24141E-01                    
                     123   18259.          0.27566E-01                    
                     124   18550.          0.31349E-01                    
                     125   18825.          0.35511E-01                    
                     126   19081.          0.40064E-01                    
                     127   19316.          0.45009E-01                    
                     128   19530.          0.50356E-01                    
                     129   19720.          0.56114E-01                    
                     130   19888.          0.62292E-01                    
                     131   20033.          0.68896E-01                    
                     132   20154.          0.75933E-01                    
                     133   20252.          0.83405E-01                    
                     134   20326.          0.91315E-01                    
                     135   20378.          0.99666E-01                    
                     136   20407.          0.10846                        
                     137   20413.          0.11769                        
                     138   20398.          0.12736                        
                     139   20362.          0.13746                        
                     140   20305.          0.14800                        
                     141   20228.          0.15898                        
                     142   20132.          0.17038                        
                     143   20018.          0.18221                        
                     144   19886.          0.19447                        
                     145   19736.          0.20716                        
                     146   19570.          0.22027                        
                     147   19387.          0.23381                        
                     148   19187.          0.24778                        
                     149   18971.          0.26218                        
                     150   18740.          0.27702                        
                     151   18491.          0.29230                        
                     152   18226.          0.30804                        
                     153   17944.          0.32423                        
                     154   17644.          0.34090                        
                     155   17325.          0.35806                        
                     156   16989.          0.37570                        
                     157   16615.          0.39402                        
                     158   16202.          0.41305                        
                     159   15749.          0.43278                        
                     160   15257.          0.45323                        
                     161   14726.          0.47438                        
                     162   14157.          0.49613                        
                     163   13555.          0.51840                        
                     164   12923.          0.54108                        
                     165   12266.          0.56406                        
                     166   11589.          0.58721                        
                     167   10897.          0.61040                        
                     168   10197.          0.63351                        
                     169   9494.7          0.65640                        
                     170   8796.2          0.67895                        
                     171   8107.4          0.70105                        
                     172   7433.9          0.72258                        
                     173   6780.7          0.74344                        
                     174   6152.2          0.76356                        
                     175   5552.1          0.78285                        
                     176   4983.5          0.80127                        
                     177   4448.5          0.81877                        
                     178   3948.7          0.83531                        
                     179   3485.0          0.85090                        
                     180   3057.6          0.86551                        
                     181   2666.2          0.87916                        
                     182   2310.0          0.89188                        
                     183   1987.7          0.90367                        
                     184   1697.9          0.91458                        
                     185   1438.9          0.92464                        
                     186   1208.7          0.93389                        
                     187   1005.3          0.94237                        
                     188   826.87          0.95014                        
                     189   671.23          0.95723                        
                     190   536.45          0.96368                        
                     191   420.67          0.96955                        
                     192   322.09          0.97488                        
                     193   239.07          0.97970                        
                     194   170.11          0.98406                        
                     195   113.85          0.98799                        
                     196   65.033          0.99156                        
                     197   24.669          0.99479                        
                     198   0.0000          0.99763                        
